* Source file = 27TBFCG+WG_63cm_hor 0.mls
* Impulse length = 262144
* Sample rate = 48000
* Scale type = Pa
* Left window = 1.5 ms, Rectangular
* Reference time = 2.257 ms
* Right window = 3.854 ms, Tukey 0.25
* FFT length = 32768
* Smoothing = None
* Calibration = MICA.cal
* Scale = 0.0 dB
Freq[Hz]     dBSPL  Phase[Deg]
5.00000     43.233   164.743
5.07273     43.217   164.733
5.14651     43.202   164.711
5.22137     43.186   164.690
5.29732     43.171   164.668
5.37437     43.155   164.647
5.45254     43.140   164.626
5.53185     43.124   164.606
5.61231     43.109   164.586
5.69394     43.094   164.567
5.77676     43.078   164.549
5.86079     43.063   164.530
5.94604     43.049   164.499
6.03252     43.036   164.469
6.12027     43.023   164.439
6.20929     43.009   164.410
6.29961     42.996   164.381
6.39124     42.982   164.353
6.48420     42.969   164.326
6.57851     42.956   164.300
6.67420     42.942   164.274
6.77128     42.929   164.249
6.86977     42.916   164.225
6.96969     42.902   164.202
7.07107     42.889   164.180
7.17392     42.876   164.158
7.27827     42.862   164.138
7.38413     42.850   164.112
7.49154     42.840   164.080
7.60050     42.829   164.050
7.71105     42.818   164.021
7.82321     42.807   163.993
7.93701     42.796   163.967
8.05245     42.786   163.942
8.16958     42.775   163.918
8.28841     42.764   163.896
8.40896     42.753   163.875
8.53128     42.742   163.856
8.65537     42.732   163.839
8.78126     42.721   163.824
8.90899     42.713   163.800
9.03857     42.705   163.779
9.17004     42.697   163.759
9.30342     42.689   163.744
9.43874     42.682   163.732
9.57603     42.674   163.725
9.71532     42.666   163.724
9.85663     42.658   163.733
10.0000     42.650   163.763
10.1455     42.651   163.793
10.2930     42.653   163.800
10.4427     42.658   163.790
10.5946     42.662   163.774
10.7487     42.666   163.754
10.9051     42.671   163.730
11.0637     42.675   163.704
11.2246     42.680   163.675
11.3879     42.684   163.644
11.5535     42.688   163.612
11.7216     42.693   163.577
11.8921     42.701   163.533
12.0650     42.709   163.487
12.2405     42.717   163.439
12.4186     42.725   163.391
12.5992     42.733   163.342
12.7825     42.741   163.292
12.9684     42.749   163.241
13.1570     42.758   163.190
13.3484     42.769   163.131
13.5426     42.781   163.070
13.7395     42.793   163.008
13.9394     42.806   162.946
14.1421     42.818   162.884
14.3478     42.830   162.820
14.5565     42.842   162.756
14.7683     42.857   162.686
14.9831     42.873   162.612
15.2010     42.888   162.537
15.4221     42.904   162.465
15.6464     42.919   162.394
15.8740     42.934   162.324
16.1049     42.950   162.255
16.3392     42.970   162.182
16.5768     42.989   162.109
16.8179     43.009   162.036
17.0626     43.029   161.965
17.3107     43.049   161.895
17.5625     43.069   161.825
17.8180     43.093   161.753
18.0771     43.118   161.681
18.3401     43.142   161.611
18.6068     43.167   161.542
18.8775     43.191   161.476
19.1521     43.218   161.410
19.4306     43.247   161.345
19.7133     43.276   161.285
20.0000     43.306   161.233
20.2909     43.339   161.183
20.5860     43.373   161.122
20.8855     43.412   161.057
21.1893     43.450   160.989
21.4975     43.488   160.919
21.8102     43.526   160.848
22.1274     43.566   160.775
22.4492     43.610   160.701
22.7758     43.653   160.627
23.1071     43.696   160.552
23.4432     43.739   160.476
23.7841     43.787   160.401
24.1301     43.835   160.325
24.4811     43.883   160.249
24.8372     43.931   160.173
25.1984     43.983   160.098
25.5649     44.036   160.023
25.9368     44.089   159.949
26.3141     44.142   159.875
26.6968     44.200   159.803
27.0851     44.258   159.732
27.4791     44.316   159.662
27.8788     44.374   159.593
28.2843     44.437   159.528
28.6957     44.500   159.464
29.1131     44.563   159.403
29.5365     44.629   159.348
29.9661     44.696   159.303
30.4020     44.768   159.258
30.8442     44.841   159.205
31.2929     44.917   159.150
31.7480     44.994   159.091
32.2098     45.071   159.031
32.6783     45.152   158.972
33.1536     45.233   158.911
33.6359     45.314   158.850
34.1251     45.400   158.791
34.6215     45.486   158.731
35.1250     45.572   158.671
35.6359     45.662   158.614
36.1543     45.752   158.557
36.6802     45.843   158.500
37.2137     45.938   158.447
37.7550     46.033   158.394
38.3041     46.129   158.344
38.8613     46.228   158.298
39.4265     46.327   158.253
40.0000     46.429   158.218
40.5818     46.535   158.184
41.1721     46.642   158.142
41.7710     46.753   158.100
42.3785     46.863   158.055
42.9949     46.976   158.011
43.6203     47.090   157.966
44.2548     47.206   157.921
44.8985     47.323   157.877
45.5515     47.442   157.832
46.2141     47.563   157.789
46.8863     47.685   157.745
47.5683     47.809   157.703
48.2602     47.934   157.661
48.9621     48.062   157.621
49.6743     48.190   157.581
50.3968     48.321   157.544
51.1299     48.453   157.505
51.8736     48.588   157.468
52.6281     48.723   157.430
53.3936     48.860   157.394
54.1702     48.998   157.357
54.9581     49.139   157.322
55.7575     49.280   157.286
56.5685     49.424   157.252
57.3914     49.569   157.218
58.2261     49.715   157.185
59.0730     49.863   157.153
59.9323     50.012   157.121
60.8040     50.163   157.091
61.6884     50.315   157.061
62.5857     50.468   157.032
63.4960     50.623   157.003
64.4196     50.779   156.976
65.3566     50.938   156.950
66.3073     51.097   156.925
67.2717     51.257   156.901
68.2502     51.419   156.880
69.2429     51.582   156.861
70.2501     51.747   156.847
71.2719     51.916   156.832
72.3086     52.085   156.811
73.3603     52.256   156.789
74.4274     52.428   156.764
75.5099     52.601   156.738
76.6083     52.775   156.711
77.7226     52.950   156.682
78.8531     53.127   156.653
80.0000     53.305   156.623
81.1636     53.484   156.592
82.3442     53.664   156.560
83.5419     53.845   156.527
84.7570     54.027   156.493
85.9899     54.210   156.459
87.2406     54.394   156.423
88.5096     54.579   156.387
89.7970     54.765   156.350
91.1031     54.952   156.311
92.4282     55.140   156.272
93.7726     55.328   156.232
95.1366     55.518   156.191
96.5204     55.708   156.149
97.9243     55.900   156.105
99.3486     56.092   156.059
100.794     56.284   156.011
102.260     56.477   155.964
103.747     56.670   155.918
105.256     56.865   155.873
106.787     57.060   155.827
108.340     57.255   155.782
109.916     57.451   155.737
111.515     57.649   155.692
113.137     57.846   155.646
114.783     58.045   155.601
116.452     58.244   155.556
118.146     58.443   155.511
119.865     58.643   155.466
121.608     58.844   155.421
123.377     59.046   155.376
125.171     59.248   155.332
126.992     59.450   155.288
128.839     59.653   155.244
130.713     59.857   155.201
132.615     60.061   155.158
134.543     60.266   155.116
136.500     60.472   155.074
138.486     60.678   155.033
140.500     60.884   154.993
142.544     61.091   154.954
144.617     61.299   154.916
146.721     61.507   154.878
148.855     61.717   154.842
151.020     61.926   154.807
153.217     62.136   154.772
155.445     62.347   154.739
157.706     62.559   154.708
160.000     62.771   154.677
162.327     62.984   154.648
164.688     63.198   154.619
167.084     63.413   154.592
169.514     63.628   154.567
171.980     63.845   154.542
174.481     64.062   154.519
177.019     64.280   154.497
179.594     64.499   154.476
182.206     64.719   154.455
184.856     64.941   154.436
187.545     65.163   154.417
190.273     65.386   154.400
193.041     65.611   154.383
195.849     65.837   154.367
198.697     66.064   154.353
201.587     66.293   154.341
204.520     66.525   154.324
207.494     66.758   154.301
210.512     66.992   154.275
213.574     67.228   154.244
216.681     67.466   154.209
219.833     67.705   154.169
223.030     67.945   154.123
226.274     68.187   154.072
229.565     68.431   154.014
232.905     68.676   153.949
236.292     68.923   153.875
239.729     69.171   153.794
243.216     69.421   153.702
246.754     69.673   153.601
250.343     69.926   153.488
253.984     70.180   153.363
257.678     70.436   153.226
261.426     70.694   153.075
265.229     70.953   152.910
269.087     71.213   152.729
273.001     71.474   152.533
276.972     71.736   152.319
281.000     71.999   152.088
285.088     72.262   151.838
289.234     72.527   151.568
293.441     72.792   151.279
297.709     73.057   150.970
302.040     73.322   150.639
306.433     73.588   150.286
310.890     73.853   149.912
315.412     74.117   149.515
320.000     74.381   149.095
324.655     74.645   148.653
329.377     74.907   148.187
334.168     75.167   147.699
339.028     75.426   147.188
343.959     75.684   146.654
348.962     75.939   146.099
354.038     76.191   145.521
359.188     76.442   144.923
364.412     76.689   144.305
369.713     76.933   143.668
375.090     77.174   143.012
380.546     77.411   142.341
386.081     77.644   141.654
391.697     77.873   140.953
397.394     78.098   140.242
403.175     78.318   139.521
409.039     78.533   138.792
414.989     78.744   138.060
421.025     78.949   137.326
427.149     79.149   136.593
433.362     79.343   135.865
439.665     79.533   135.145
446.060     79.717   134.437
452.548     79.895   133.745
459.131     80.068   133.074
465.809     80.237   132.427
472.584     80.401   131.810
479.458     80.560   131.226
486.432     80.716   130.682
493.507     80.868   130.182
500.686     81.019   129.731
507.968     81.169   129.331
515.357     81.319   128.980
522.853     81.470   128.683
530.458     81.623   128.443
538.174     81.782   128.259
546.002     81.949   128.128
553.943     82.104   128.058
562.001     82.281   128.028
570.175     82.481   128.040
578.469     82.673   128.080
586.883     82.875   128.138
595.419     83.105   128.206
604.080     83.346   128.263
612.866     83.598   128.295
621.780     83.860   128.286
630.824     84.131   128.222
640.000     84.433   128.078
649.309     84.741   127.848
658.753     85.029   127.549
668.335     85.343   127.127
678.056     85.680   126.558
687.919     86.013   125.870
697.925     86.317   125.128
708.077     86.614   124.290
718.376     86.923   123.291
728.825     87.239   122.120
739.426     87.539   120.861
750.181     87.803   119.617
761.093     88.067   118.225
772.163     88.311   116.792
783.394     88.534   115.331
794.789     88.749   113.763
806.349     88.940   112.204
818.078     89.109   110.674
829.977     89.255   109.194
842.050     89.388   107.698
854.298     89.500   106.298
866.724     89.589   105.089
879.330     89.668   103.938
892.120     89.740   102.881
905.097     89.804   102.003
918.262     89.866   101.308
931.618     89.933   100.792
945.169     90.011   100.441
958.917     90.110   100.226
972.864     90.232   100.128
987.015     90.381   100.101
1001.37     90.569   100.092
1015.94     90.786   100.040
1030.71     91.031    99.888
1045.71     91.310    99.574
1060.92     91.604    99.068
1076.35     91.903    98.349
1092.00     92.200    97.422
1107.89     92.486    96.294
1124.00     92.766    94.932
1140.35     93.033    93.347
1156.94     93.267    91.647
1173.77     93.466    89.882
1190.84     93.630    88.109
1208.16     93.759    86.379
1225.73     93.859    84.676
1243.56     93.931    83.070
1261.65     93.978    81.678
1280.00     94.010    80.541
1298.62     94.040    79.668
1317.51     94.078    79.059
1336.67     94.143    78.659
1356.11     94.244    78.447
1375.84     94.390    78.327
1395.85     94.581    78.186
1416.15     94.814    77.918
1436.75     95.087    77.418
1457.65     95.388    76.599
1478.85     95.688    75.479
1500.36     95.976    74.083
1522.19     96.249    72.397
1544.33     96.490    70.532
1566.79     96.701    68.488
1589.58     96.873    66.335
1612.70     96.998    64.298
1636.16     97.090    62.327
1659.95     97.157    60.488
1684.10     97.207    58.885
1708.60     97.254    57.527
1733.45     97.312    56.396
1758.66     97.403    55.367
1784.24     97.526    54.405
1810.19     97.685    53.401
1836.52     97.877    52.218
1863.24     98.088    50.781
1890.34     98.306    49.084
1917.83     98.514    47.102
1945.73     98.699    44.802
1974.03     98.840    42.259
2002.74     98.935    39.574
2031.87     98.976    36.910
2061.43     98.968    34.379
2091.41     98.920    32.014
2121.83     98.841    29.911
2152.69     98.753    28.182
2184.01     98.682    26.802
2215.77     98.650    25.647
2248.00     98.673    24.540
2280.70     98.753    23.248
2313.87     98.872    21.552
2347.53     98.991    19.355
2381.68     99.067    16.680
2416.32     99.062    13.621
2451.46     98.950    10.425
2487.12     98.723     7.415
2523.30     98.391     4.966
2560.00     98.009     3.453
2597.24     97.655     2.976
2635.01     97.406     3.320
2673.34     97.323     3.932
2712.23     97.395     4.059
2751.68     97.538     3.211
2791.70     97.647     1.369
2832.31     97.641    -1.076
2873.50     97.488    -3.594
2915.30     97.206    -5.584
2957.70     96.867    -6.597
3000.72     96.581    -6.557
3044.37     96.446    -5.959
3088.65     96.479    -5.664
3133.58     96.596    -6.329
3179.16     96.680    -8.109
3225.40     96.626   -10.548
3272.31     96.392   -12.958
3319.91     96.009   -14.564
3368.20     95.584   -14.798
3417.19     95.271   -13.759
3466.89     95.179   -12.341
3517.32     95.270   -11.652
3568.48     95.395   -12.256
3620.39     95.401   -13.788
3673.05     95.226   -15.310
3726.47     94.931   -15.852
3780.67     94.679   -15.043
3835.67     94.631   -13.546
3891.46     94.800   -12.670
3948.06     95.040   -13.245
4005.49     95.181   -15.114
4063.75     95.125   -17.429
4122.86     94.886   -19.196
4182.82     94.560   -19.736
4243.66     94.312   -18.935
4305.39     94.281   -17.655
4368.01     94.440   -17.200
4431.55     94.612   -18.237
4496.01     94.608   -20.201
4561.40     94.385   -21.702
4627.75     94.103   -21.600
4695.06     94.033   -20.351
4763.35     94.223   -19.988
4832.64     94.394   -21.623
4902.93     94.260   -24.094
4974.24     93.834   -24.964
5046.60     93.518   -22.949
5120.00     93.695   -20.417
5194.47     94.131   -20.673
5270.03     94.314   -23.362
5346.68     94.106   -25.451
5424.45     93.894   -24.994
5503.35     94.084   -24.077
5583.40     94.434   -25.852
5664.61     94.439   -29.570
5747.01     94.035   -32.028
5830.60     93.641   -31.561
5915.41     93.645   -30.352
6001.45     93.833   -31.270
6088.74     93.786   -33.691
6177.30     93.479   -35.141
6267.15     93.243   -34.867
6358.31     93.228   -34.817
6450.80     93.165   -35.961
6544.62     92.909   -36.595
6639.82     92.727   -35.544
6736.40     92.872   -34.497
6834.38     93.146   -35.650
6933.79     93.163   -38.473
7034.64     92.868   -40.276
7136.96     92.688   -40.148
7240.77     92.759   -41.054
7346.09     92.615   -43.571
7452.94     92.210   -44.568
7561.35     92.025   -43.888
7671.33     92.053   -44.876
7782.91     91.736   -47.556
7896.12     91.005   -47.419
8010.97     90.741   -43.644
8127.49     90.968   -42.756
8245.71     90.813   -43.282
8365.65     90.796   -41.390
8487.33     91.103   -42.652
8610.78     90.658   -45.358
8736.03     90.171   -41.375
8863.09     90.800   -39.086
8992.01     90.889   -42.627
9122.80     90.501   -41.313
9255.50     90.944   -40.064
9390.12     90.917   -42.916
9526.70     90.759   -40.003
9665.27     91.698   -40.162
9805.86     91.882   -46.422
9948.49     91.697   -48.880
10093.2     91.638   -53.716
10240.0     90.794   -55.829
10388.9     90.822   -54.028
10540.1     90.894   -59.494
10693.4     89.870   -63.265
10848.9     89.121   -61.543
11006.7     88.571   -60.658
11166.8     88.142   -57.823
11329.2     87.918   -56.846
11494.0     87.303   -54.250
11661.2     87.318   -47.767
11830.8     87.852   -45.638
12002.9     88.373   -44.832
12177.5     88.671   -49.514
12354.6     87.814   -49.143
12534.3     88.303   -44.415
12716.6     88.647   -47.054
12901.6     88.821   -48.252
13089.2     88.376   -50.674
13279.6     88.703   -45.993
13472.8     89.240   -50.704
13668.8     89.448   -53.618
13867.6     88.776   -60.891
14069.3     88.397   -57.217
14273.9     88.360   -62.410
14481.5     87.813   -63.752
14692.2     86.699   -64.585
14905.9     86.693   -60.738
15122.7     86.036   -60.840
15342.7     85.873   -59.105
15565.8     85.327   -55.121
15792.2     85.565   -54.154
16021.9     85.020   -51.401
16255.0     84.956   -46.455
16491.4     85.635   -43.270
16731.3     85.402   -42.331
16974.7     85.883   -37.226
17221.6     86.851   -34.476
17472.1     87.610   -37.649
17726.2     87.952   -39.085
17984.0     88.586   -40.671
18245.6     88.791   -45.417
18511.0     88.930   -46.754
18780.2     89.101   -49.664
19053.4     89.320   -51.242
19330.5     89.629   -55.103
19611.7     89.556   -59.600
19897.0     89.396   -61.418
20186.4     89.586   -65.509
20480.0     88.990   -68.950
20777.9     89.178   -68.732
21080.1     89.212   -74.550
21386.7     88.587   -78.112
21697.8     88.331   -79.649
22013.4     87.810   -83.366
22333.6     87.113   -83.726
22658.4     86.450   -82.429
22988.0     86.222   -79.947
